File: GAMRY Chronopotentiometry Charge.DTA
EXPLAIN
TAG	CHRONOP
TITLE	LABEL	Chronopotentiometry Scan 2	Test &Identifier
DATE	LABEL	9/29/2021	Date
TIME	LABEL	10:58:03	Time
NOTES	NOTES	1	&Notes...

PSTAT	PSTAT	REF3000-24102	Potentiostat
IPRESTEP	QUANT	0.00000E+000	Pre-step Current (A)
TPRESTEP	QUANT	2.00000E+000	Pre-step Delay &Time (s)
ISTEP1	QUANT	1.00000E+000	Step 1 Current (A)
TSTEP1	QUANT	1.00000E+004	Step 1 Time (s)
ISTEP2	QUANT	0.00000E+000	Step 2 Current (A)
TSTEP2	QUANT	0.00000E+000	Step 2 Time (s)
SAMPLETIME	QUANT	1.00000E+000	Sa&mple Period (s)
VLIMITLOWER	QUANT	-3.00000E-001	Lower Limit &V (V)
VLIMITUPPER	QUANT	9.50000E-001	Upper Limit &V (V)
DECIMATE	TOGGLE	F	Decimate
AREA	QUANT	2.50000E+001	Electrode &Area (cm^2)
ELECTRODETYPE	SELECTOR	0	Electrode Type
STRIPPING	TOGGLE	F	Used for Stripping
POLARITY	TOGGLE	F	Signal Polarity
EQDELAY	QUANT	1.00000E+000	Equil. &Time (s)
CONDIT	TWOPARAM	F	1.50000E+001	0.00000E+000	Conditionin&g	Time(s)	E(V)
DELAY	TWOPARAM	F	3.00000E+002	1.00000E-001	Init. De&lay	Time(s)	Stab.(mV/s)
SAMPLINGMODE	SELECTOR	1	Sampling &Mode
EOC	QUANT	0	Open Circuit (V)
PSTATMODEL	IQUANT	5	Pstat Model
PSTATSECTION	LABEL	REF3000-24102	Pstat Section
PSTATSERIALNO	LABEL	24102	Pstat Serial Number
CTRLMODE	IQUANT	0	Control Mode
ELECTROMETER	IQUANT	0	RE=0 or CS=1
IESTAB	IQUANT	0	I/E Stability
CASPEED	IQUANT	4	Control Amp Speed
CONVENTION	IQUANT	1	Current Convention
ICHRANGE	IQUANT	2	Ich Range
ICHRANGEMODE	TOGGLE	T	Ich Auto Range
ICHOFFSETENABLE	TOGGLE	F	Ich Offset Enable
ICHOFFSET	QUANT	0	Ich Offset (V)
ICHFILTER	IQUANT	3	Ich Filter
VCHRANGE	IQUANT	3	Vch Range
VCHRANGEMODE	TOGGLE	T	Vch Auto Range
VCHOFFSETENABLE	TOGGLE	F	Vch Offset Enable
VCHOFFSET	QUANT	0	Vch Offset (V)
VCHFILTER	IQUANT	3	Vch Filter
ACHRANGE	IQUANT	2	Ach Range
ACHOFFSETENABLE	TOGGLE	F	Ach Offset Enable
ACHOFFSET	QUANT	0	Ach Offset (V)
ACHFILTER	IQUANT	1	Ach Filter
IERANGELOWERLIMIT	IQUANT	2	I/E Range Lower Limit
IERANGEMODE	TOGGLE	F	I/E AutoRange
IERANGE	IQUANT	12	I/E Range
POSFEEDENABLE	TOGGLE	F	Positive Feedback IR Comp
POSFEEDRESISTANCE	QUANT	0	Positive Feedback Resistance (ohm)
ACHSELECT	IQUANT	0	Ach Select
SENSECABLEID	IQUANT	13	Sense Cable ID
PWRCABLEID	IQUANT	13	Power Cable ID
DCCALDATE	LABEL	8/9/2021	DC Calibration Date
ACCALDATE	LABEL	8/9/2021	AC Calibration Date
THERMOSELECT	IQUANT	1	Thermo Select
FRAMEWORKVERSION	LABEL	7.8.4	Framework Version
INSTRUMENTVERSION	LABEL	4.42	Instrument Version
COMPLIANCEVOLTAGE	IQUANT	0	Compliance Voltage
CURVE	TABLE	1932
	Pt	T	Vf	Im	Vu	Sig	Ach	IERange	Over	Temp
	#	s	V vs. Ref.	A	V	V	V	#	bits	deg C
	0	-1	-1.21150E-001	7.95369E-005	0.00000E+000	-5.00083E-005	1.94896E-003	12	..........a	-327.66
	19	18	4.30012E-001	9.99931E-001	0.00000E+000	1.00005E+000	1.96559E-003	12	..........a	-327.66
	38	37	4.68688E-001	9.99927E-001	0.00000E+000	1.00005E+000	1.96449E-003	12	..........a	-327.66
	57	56	4.76817E-001	9.99919E-001	0.00000E+000	1.00005E+000	1.97099E-003	12	..........a	-327.66
	76	75	4.82265E-001	9.99936E-001	0.00000E+000	1.00005E+000	1.96921E-003	12	..........a	-327.66
	95	94	4.86416E-001	9.99943E-001	0.00000E+000	1.00005E+000	1.96486E-003	12	..........a	-327.66
	114	113	4.90027E-001	9.99948E-001	0.00000E+000	1.00005E+000	1.96589E-003	12	..........a	-327.66
	133	132	4.93111E-001	9.99964E-001	0.00000E+000	1.00005E+000	1.96177E-003	12	..........a	-327.66
	152	151	4.95811E-001	9.99977E-001	0.00000E+000	1.00005E+000	1.96211E-003	12	..........a	-327.66
	171	170	4.98328E-001	9.99991E-001	0.00000E+000	1.00005E+000	1.95427E-003	12	..........a	-327.66
	190	189	5.00621E-001	1.00002E+000	0.00000E+000	1.00005E+000	1.93712E-003	12	..........a	-327.66
	209	208	5.02662E-001	1.00002E+000	0.00000E+000	1.00005E+000	1.93072E-003	12	..........a	-327.66
	228	227	5.04600E-001	1.00003E+000	0.00000E+000	1.00005E+000	1.92144E-003	12	..........a	-327.66
	247	246	5.06440E-001	1.00003E+000	0.00000E+000	1.00005E+000	1.89929E-003	12	..........a	-327.66
	266	265	5.08174E-001	1.00003E+000	0.00000E+000	1.00005E+000	1.89964E-003	12	..........a	-327.66
	285	284	5.09834E-001	1.00003E+000	0.00000E+000	1.00005E+000	1.88662E-003	12	..........a	-327.66
	304	303	5.11602E-001	1.00004E+000	0.00000E+000	1.00005E+000	1.88086E-003	12	..........a	-327.66
	323	322	5.13176E-001	1.00004E+000	0.00000E+000	1.00005E+000	1.87932E-003	12	..........a	-327.66
	342	341	5.14715E-001	1.00003E+000	0.00000E+000	1.00005E+000	1.88182E-003	12	..........a	-327.66
	361	360	5.16132E-001	1.00003E+000	0.00000E+000	1.00005E+000	1.87381E-003	12	..........a	-327.66
	380	379	5.17476E-001	1.00003E+000	0.00000E+000	1.00005E+000	1.87654E-003	12	..........a	-327.66
	399	398	5.18746E-001	1.00002E+000	0.00000E+000	1.00005E+000	1.87052E-003	12	..........a	-327.66
	418	417	5.19982E-001	1.00002E+000	0.00000E+000	1.00005E+000	1.87382E-003	12	..........a	-327.66
	437	436	5.21165E-001	1.00002E+000	0.00000E+000	1.00005E+000	1.87411E-003	12	..........a	-327.66
	456	455	5.22355E-001	1.00001E+000	0.00000E+000	1.00005E+000	1.86221E-003	12	..........a	-327.66
	475	474	5.23484E-001	1.00000E+000	0.00000E+000	1.00005E+000	1.87117E-003	12	..........a	-327.66
	494	493	5.24546E-001	9.99989E-001	0.00000E+000	1.00005E+000	1.87101E-003	12	..........a	-327.66
	513	512	5.25603E-001	9.99989E-001	0.00000E+000	1.00005E+000	1.86087E-003	12	..........a	-327.66
	532	531	5.26584E-001	9.99985E-001	0.00000E+000	1.00005E+000	1.86519E-003	12	..........a	-327.66
	551	550	5.27467E-001	9.99982E-001	0.00000E+000	1.00005E+000	1.86727E-003	12	..........a	-327.66
	570	569	5.28407E-001	9.99972E-001	0.00000E+000	1.00005E+000	1.87987E-003	12	..........a	-327.66
	589	588	5.29541E-001	9.99966E-001	0.00000E+000	1.00005E+000	1.88631E-003	12	..........a	-327.66
	608	607	5.30306E-001	9.99966E-001	0.00000E+000	1.00005E+000	1.90016E-003	12	..........a	-327.66
	627	626	5.31234E-001	9.99968E-001	0.00000E+000	1.00005E+000	1.86229E-003	12	..........a	-327.66
	646	645	5.32084E-001	9.99964E-001	0.00000E+000	1.00005E+000	1.86046E-003	12	..........a	-327.66
	665	664	5.34367E-001	9.99955E-001	0.00000E+000	1.00005E+000	1.87741E-003	12	..........a	-327.66
	684	683	5.35115E-001	9.99960E-001	0.00000E+000	1.00005E+000	1.87361E-003	12	..........a	-327.66
	703	702	5.35908E-001	9.99951E-001	0.00000E+000	1.00005E+000	1.93686E-003	12	..........a	-327.66
	722	721	5.36630E-001	9.99955E-001	0.00000E+000	1.00005E+000	1.94197E-003	12	..........a	-327.66
	741	740	5.37520E-001	9.99950E-001	0.00000E+000	1.00005E+000	1.93189E-003	12	..........a	-327.66
	760	759	5.38257E-001	9.99936E-001	0.00000E+000	1.00005E+000	1.93771E-003	12	..........a	-327.66
	779	778	5.39265E-001	9.99956E-001	0.00000E+000	1.00005E+000	1.93799E-003	12	..........a	-327.66
	798	797	5.40133E-001	9.99961E-001	0.00000E+000	1.00005E+000	1.92177E-003	12	..........a	-327.66
	817	816	5.41025E-001	9.99961E-001	0.00000E+000	1.00005E+000	1.93741E-003	12	..........a	-327.66
	836	835	5.41826E-001	9.99956E-001	0.00000E+000	1.00005E+000	1.92859E-003	12	..........a	-327.66
	855	854	5.42642E-001	9.99961E-001	0.00000E+000	1.00005E+000	1.92344E-003	12	..........a	-327.66
	874	873	5.43445E-001	9.99963E-001	0.00000E+000	1.00005E+000	1.92454E-003	12	..........a	-327.66
	893	892	5.44295E-001	9.99967E-001	0.00000E+000	1.00005E+000	1.92541E-003	12	..........a	-327.66
	912	911	5.45214E-001	9.99969E-001	0.00000E+000	1.00005E+000	1.92461E-003	12	..........a	-327.66
	931	930	5.48543E-001	9.99974E-001	0.00000E+000	1.00005E+000	1.90322E-003	12	..........a	-327.66
	950	949	5.49226E-001	9.99967E-001	0.00000E+000	1.00005E+000	1.90941E-003	12	..........a	-327.66
	969	968	5.49991E-001	9.99957E-001	0.00000E+000	1.00005E+000	1.90374E-003	12	..........a	-327.66
	988	987	5.50741E-001	9.99976E-001	0.00000E+000	1.00005E+000	1.91394E-003	12	..........a	-327.66
	1007	1006	5.51433E-001	9.99971E-001	0.00000E+000	1.00005E+000	1.90801E-003	12	..........a	-327.66
	1026	1025	5.52273E-001	9.99973E-001	0.00000E+000	1.00005E+000	1.91237E-003	12	..........a	-327.66
	1045	1044	5.53099E-001	9.99972E-001	0.00000E+000	1.00005E+000	1.91566E-003	12	..........a	-327.66
	1064	1063	5.54013E-001	9.99967E-001	0.00000E+000	1.00005E+000	1.91117E-003	12	..........a	-327.66
	1083	1082	5.54806E-001	9.99967E-001	0.00000E+000	1.00005E+000	1.90917E-003	12	..........a	-327.66
	1102	1101	5.55633E-001	9.99959E-001	0.00000E+000	1.00005E+000	1.91812E-003	12	..........a	-327.66
	1121	1120	5.56573E-001	9.99958E-001	0.00000E+000	1.00005E+000	1.91869E-003	12	..........a	-327.66
	1140	1139	5.57479E-001	9.99956E-001	0.00000E+000	1.00005E+000	1.90561E-003	12	..........a	-327.66
	1159	1158	5.58405E-001	9.99949E-001	0.00000E+000	1.00005E+000	1.91534E-003	12	..........a	-327.66
	1178	1177	5.59378E-001	9.99946E-001	0.00000E+000	1.00005E+000	1.90919E-003	12	..........a	-327.66
	1197	1196	5.60303E-001	9.99942E-001	0.00000E+000	1.00005E+000	1.90857E-003	12	..........a	-327.66
	1216	1215	5.61314E-001	9.99946E-001	0.00000E+000	1.00005E+000	1.92226E-003	12	..........a	-327.66
	1235	1234	5.62347E-001	9.99941E-001	0.00000E+000	1.00005E+000	1.91396E-003	12	..........a	-327.66
	1254	1253	5.63275E-001	9.99936E-001	0.00000E+000	1.00005E+000	1.92086E-003	12	..........a	-327.66
	1273	1272	5.64332E-001	9.99933E-001	0.00000E+000	1.00005E+000	1.92254E-003	12	..........a	-327.66
	1292	1291	5.65324E-001	9.99929E-001	0.00000E+000	1.00005E+000	1.91772E-003	12	..........a	-327.66
	1311	1310	5.66362E-001	9.99921E-001	0.00000E+000	1.00005E+000	1.91826E-003	12	..........a	-327.66
	1330	1329	5.67293E-001	9.99907E-001	0.00000E+000	1.00005E+000	1.92177E-003	12	..........a	-327.66
	1349	1348	5.68152E-001	9.99926E-001	0.00000E+000	1.00005E+000	1.92189E-003	12	..........a	-327.66
	1368	1367	5.69011E-001	9.99921E-001	0.00000E+000	1.00005E+000	1.91911E-003	12	..........a	-327.66
	1387	1386	5.69834E-001	9.99920E-001	0.00000E+000	1.00005E+000	1.92859E-003	12	..........a	-327.66
	1406	1405	5.70606E-001	9.99915E-001	0.00000E+000	1.00005E+000	1.92879E-003	12	..........a	-327.66
	1425	1424	5.71347E-001	9.99915E-001	0.00000E+000	1.00005E+000	1.92896E-003	12	..........a	-327.66
	1444	1443	5.72073E-001	9.99919E-001	0.00000E+000	1.00005E+000	1.92046E-003	12	..........a	-327.66
	1463	1462	5.72684E-001	9.99913E-001	0.00000E+000	1.00005E+000	1.92017E-003	12	..........a	-327.66
	1482	1481	5.73501E-001	9.99907E-001	0.00000E+000	1.00005E+000	1.91812E-003	12	..........a	-327.66
	1501	1500	5.74464E-001	9.99910E-001	0.00000E+000	1.00005E+000	1.91989E-003	12	..........a	-327.66
	1520	1519	5.75181E-001	9.99909E-001	0.00000E+000	1.00005E+000	1.90929E-003	12	..........a	-327.66
	1539	1538	5.75675E-001	9.99909E-001	0.00000E+000	1.00005E+000	1.92362E-003	12	..........a	-327.66
	1558	1557	5.76068E-001	9.99908E-001	0.00000E+000	1.00005E+000	1.91367E-003	12	..........a	-327.66
	1577	1576	5.76697E-001	9.99904E-001	0.00000E+000	1.00005E+000	1.90217E-003	12	..........a	-327.66
	1596	1595	5.77183E-001	9.99904E-001	0.00000E+000	1.00005E+000	1.90224E-003	12	..........a	-327.66
	1615	1614	5.77626E-001	9.99904E-001	0.00000E+000	1.00005E+000	1.90477E-003	12	..........a	-327.66
	1634	1633	5.78004E-001	9.99901E-001	0.00000E+000	1.00005E+000	1.89871E-003	12	..........a	-327.66
	1653	1652	5.78476E-001	9.99908E-001	0.00000E+000	1.00005E+000	1.89259E-003	12	..........a	-327.66
	1672	1671	5.78911E-001	9.99905E-001	0.00000E+000	1.00005E+000	1.88979E-003	12	..........a	-327.66
	1691	1690	5.79299E-001	9.99904E-001	0.00000E+000	1.00005E+000	1.89381E-003	12	..........a	-327.66
	1710	1709	5.79725E-001	9.99905E-001	0.00000E+000	1.00005E+000	1.87637E-003	12	..........a	-327.66
	1729	1728	5.80435E-001	9.99903E-001	0.00000E+000	1.00005E+000	1.87997E-003	12	..........a	-327.66
	1748	1747	5.81545E-001	9.99904E-001	0.00000E+000	1.00005E+000	1.87716E-003	12	..........a	-327.66
	1767	1766	5.82740E-001	9.99903E-001	0.00000E+000	1.00005E+000	1.86616E-003	12	..........a	-327.66
	1786	1785	5.84337E-001	9.99904E-001	0.00000E+000	1.00005E+000	1.86661E-003	12	..........a	-327.66
	1805	1804	5.86293E-001	9.99911E-001	0.00000E+000	1.00005E+000	1.87729E-003	12	..........a	-327.66
	1824	1823	5.88435E-001	9.99910E-001	0.00000E+000	1.00005E+000	1.86851E-003	12	..........a	-327.66
	1843	1842	5.91624E-001	9.99904E-001	0.00000E+000	1.00005E+000	1.87669E-003	12	..........a	-327.66
	1862	1861	5.96100E-001	9.99907E-001	0.00000E+000	1.00005E+000	1.86517E-003	12	..........a	-327.66
	1881	1880	6.05724E-001	9.99900E-001	0.00000E+000	1.00005E+000	1.86322E-003	12	..........a	-327.66
	1900	1899	8.71704E-001	9.99902E-001	0.00000E+000	1.00005E+000	1.86442E-003	12	..........a	-327.66
	1919	1918	9.36568E-001	9.99909E-001	0.00000E+000	1.00005E+000	1.85946E-003	12	..........a	-327.66
	1931	1930	9.51178E-001	9.99910E-001	0.00000E+000	1.00005E+000	1.86624E-003	12	..........a	-327.66
EXPERIMENTABORTED	TOGGLE	T	Experiment Aborted